GITM2 log file
## Inputs from UAM.in
# Resart= F
# Eddy coef:   100.000 Eddy P0:     0.010 Eddy P1:     0.005 Eddy Scaling:     1.000
# Statistical Models Only:  F Apex:  F
# EUV Data:  F
# AMIE: none           
none                                                                                                
# Solar Heating:  T Joule Heating:  F Auroral Heating:  F
# NO Cooling:  F O Cooling:  F
# Conduction:  T Turbulent Conduction:  F Updated Turbulent Conduction:  F
# Pressure Grad:  T Ion Drag:  F Neutral Drag:  T
# Viscosity:  T Coriolis:  T Gravity:  T
# Ion Chemistry:  F Ion Advection:  F Neutral Chemistry:  F
 
#START
   iStep yyyy mm dd hh mm ss  ms      dt min(T) max(T) mean(T) min(VV) max(VV) mean(VV) F107 F107A Bx By Bz Vx HPI
       2 2002 12 21 12  0  5 323  5.3235    166.50153    170.12081    167.96828     -6.00039     25.00000     -0.92259    150.0    150.0      0.0      0.0    -20.0    400.0      1.0
       3 2002 12 21 12  0 10 621  5.2980    166.42458    190.07249    168.18670    -10.91507     25.00000     -2.69131    150.0    150.0      0.0      0.0    -20.0    400.0      1.0
       4 2002 12 21 12  0 15 890  5.2687    166.31675    204.23753    168.32676    -15.60153     25.00000     -4.77629    150.0    150.0      0.0      0.0    -20.0    400.0      1.0
       5 2002 12 21 12  0 21 135  5.2450    166.17852    214.32592    168.41954    -20.65705     25.00000     -6.83866    150.0    150.0      0.0      0.0    -20.0    400.0      1.0
       6 2002 12 21 12  0 26 351  5.2164    166.01031    221.29374    168.48742    -25.00000     25.00000     -8.89068    150.0    150.0      0.0      0.0    -20.0    400.0      1.0
       7 2002 12 21 12  0 31 541  5.1900    165.80593    226.25443    168.52723    -25.00000     25.00000    -10.72069    150.0    150.0      0.0      0.0    -20.0    400.0      1.0
       8 2002 12 21 12  0 36 706  5.1653    165.57011    230.64624    168.54652    -25.00000     25.00000    -12.08439    150.0    150.0      0.0      0.0    -20.0    400.0      1.0
       9 2002 12 21 12  0 41 848  5.1418    165.30876    234.62232    168.55086    -25.00000     25.00000    -12.87269    150.0    150.0      0.0      0.0    -20.0    400.0      1.0
      10 2002 12 21 12  0 46 964  5.1156    165.08845    237.70009    168.54661    -25.00000     25.00000    -13.37653    150.0    150.0      0.0      0.0    -20.0    400.0      1.0
      11 2002 12 21 12  0 52  55  5.0908    164.86719    240.15272    168.53721    -25.00000     25.00000    -13.66638    150.0    150.0      0.0      0.0    -20.0    400.0      1.0
      12 2002 12 21 12  0 57 123  5.0682    164.64675    242.04961    168.52486    -25.00000     25.00000    -13.77656    150.0    150.0      0.0      0.0    -20.0    400.0      1.0
      13 2002 12 21 12  1  2 165  5.0424    164.42764    243.56246    168.51104    -25.00000     25.00000    -13.74460    150.0    150.0      0.0      0.0    -20.0    400.0      1.0
      14 2002 12 21 12  1  7 209  5.0440    164.21162    244.99122    168.49649    -25.00000     25.00000    -13.64432    150.0    150.0      0.0      0.0    -20.0    400.0      1.0
      15 2002 12 21 12  1 12 258  5.0490    163.99568    246.40165    168.47996    -25.00000     25.00000    -13.54408    150.0    150.0      0.0      0.0    -20.0    400.0      1.0
      16 2002 12 21 12  1 17 314  5.0557    163.77975    247.38761    168.45910    -25.00000     25.00000    -13.42084    150.0    150.0      0.0      0.0    -20.0    400.0      1.0
      17 2002 12 21 12  1 22 372  5.0582    163.56405    248.00327    168.43462    -25.00000     25.00000    -13.28239    150.0    150.0      0.0      0.0    -20.0    400.0      1.0
      18 2002 12 21 12  1 27 433  5.0608    163.34859    248.20690    168.40802    -25.00000     25.00000    -13.14119    150.0    150.0      0.0      0.0    -20.0    400.0      1.0
      19 2002 12 21 12  1 32 497  5.0644    162.76326    248.30417    168.38243    -25.00000     25.00000    -13.00571    150.0    150.0      0.0      0.0    -20.0    400.0      1.0
      20 2002 12 21 12  1 37 563  5.0658    162.19307    248.91585    168.35889    -25.00000     25.00000    -12.85461    150.0    150.0      0.0      0.0    -20.0    400.0      1.0
      21 2002 12 21 12  1 42 631  5.0675    161.76914    249.61901    168.33350    -25.00000     25.00000    -12.68399    150.0    150.0      0.0      0.0    -20.0    400.0      1.0
      22 2002 12 21 12  1 47 703  5.0723    161.48450    250.33154    168.30700    -25.00000     25.00000    -12.52534    150.0    150.0      0.0      0.0    -20.0    400.0      1.0
      23 2002 12 21 12  1 52 776  5.0729    161.23624    250.92633    168.27884    -25.00000     25.00000    -12.35845    150.0    150.0      0.0      0.0    -20.0    400.0      1.0
      24 2002 12 21 12  1 57 851  5.0753    160.90346    251.44232    168.24774    -25.00000     25.00000    -12.17451    150.0    150.0      0.0      0.0    -20.0    400.0      1.0
      25 2002 12 21 12  2  2 931  5.0799    160.59628    251.88550    168.21418    -25.00000     25.00000    -11.98871    150.0    150.0      0.0      0.0    -20.0    400.0      1.0
      26 2002 12 21 12  2  8  12  5.0806    160.19432    252.25160    168.18060    -25.00000     25.00000    -11.81100    150.0    150.0      0.0      0.0    -20.0    400.0      1.0
      27 2002 12 21 12  2 13  95  5.0831    159.77720    252.56609    168.14544    -25.00000     25.00000    -11.63275    150.0    150.0      0.0      0.0    -20.0    400.0      1.0
      28 2002 12 21 12  2 18 181  5.0866    159.38707    252.90486    168.10742    -25.00000     25.00000    -11.44170    150.0    150.0      0.0      0.0    -20.0    400.0      1.0
      29 2002 12 21 12  2 23 270  5.0886    159.02545    253.31504    168.06837    -25.00000     25.00000    -11.25013    150.0    150.0      0.0      0.0    -20.0    400.0      1.0
      30 2002 12 21 12  2 28 360  5.0902    158.76144    253.72297    168.02874    -25.00000     25.00000    -11.07094    150.0    150.0      0.0      0.0    -20.0    400.0      1.0
      31 2002 12 21 12  2 33 452  5.0921    158.57827    254.10593    167.98694    -25.00000     25.00000    -10.89485    150.0    150.0      0.0      0.0    -20.0    400.0      1.0
      32 2002 12 21 12  2 38 546  5.0941    158.48617    254.45384    167.94245    -25.00000     25.00000    -10.71251    150.0    150.0      0.0      0.0    -20.0    400.0      1.0
      33 2002 12 21 12  2 43 644  5.0972    158.40345    254.76280    167.89723    -25.00000     25.00000    -10.54680    150.0    150.0      0.0      0.0    -20.0    400.0      1.0
      34 2002 12 21 12  2 48 744  5.1006    158.28845    255.06328    167.85104    -25.00000     25.00000    -10.38718    150.0    150.0      0.0      0.0    -20.0    400.0      1.0
      35 2002 12 21 12  2 53 846  5.1020    158.14872    255.37334    167.80219    -25.00000     25.00000    -10.23205    150.0    150.0      0.0      0.0    -20.0    400.0      1.0
      36 2002 12 21 12  2 58 951  5.1045    157.96789    255.69621    167.75188    -25.00000     25.00000    -10.06530    150.0    150.0      0.0      0.0    -20.0    400.0      1.0
      37 2002 12 21 12  3  4  56  5.1049    157.81212    256.03383    167.70100    -25.00000     25.00000     -9.90798    150.0    150.0      0.0      0.0    -20.0    400.0      1.0
      38 2002 12 21 12  3  9 163  5.1073    157.59729    256.36051    167.64856    -25.00000     25.00000     -9.76558    150.0    150.0      0.0      0.0    -20.0    400.0      1.0
      39 2002 12 21 12  3 14 273  5.1100    157.35930    256.65322    167.59279    -25.00000     25.00000     -9.60724    150.0    150.0      0.0      0.0    -20.0    400.0      1.0
      40 2002 12 21 12  3 19 385  5.1121    157.09811    256.88896    167.53568    -25.00000     25.00000     -9.46300    150.0    150.0      0.0      0.0    -20.0    400.0      1.0
      41 2002 12 21 12  3 24 503  5.1178    156.83147    257.07793    167.47757    -25.00000     25.00000     -9.32219    150.0    150.0      0.0      0.0    -20.0    400.0      1.0
      42 2002 12 21 12  3 29 622  5.1197    156.58440    257.25539    167.41677    -25.00000     25.00000     -9.18828    150.0    150.0      0.0      0.0    -20.0    400.0      1.0
      43 2002 12 21 12  3 34 745  5.1225    156.43104    257.44068    167.35374    -25.00000     25.00000     -9.05324    150.0    150.0      0.0      0.0    -20.0    400.0      1.0
      44 2002 12 21 12  3 39 871  5.1265    156.39551    257.63580    167.29040    -25.00000     25.00000     -8.92541    150.0    150.0      0.0      0.0    -20.0    400.0      1.0
      45 2002 12 21 12  3 45   2  5.1303    156.32089    257.83609    167.22527    -25.00000     25.00000     -8.80692    150.0    150.0      0.0      0.0    -20.0    400.0      1.0
      46 2002 12 21 12  3 50 135  5.1328    156.21197    258.03781    167.15699    -25.00000     25.00000     -8.68297    150.0    150.0      0.0      0.0    -20.0    400.0      1.0
      47 2002 12 21 12  3 55 270  5.1353    156.07648    258.24160    167.08734    -25.00000     25.00000     -8.56335    150.0    150.0      0.0      0.0    -20.0    400.0      1.0
      48 2002 12 21 12  4  0 405  5.1354    155.87332    258.44407    167.01696    -25.00000     25.00000     -8.45423    150.0    150.0      0.0      0.0    -20.0    400.0      1.0
      49 2002 12 21 12  4  5 543  5.1382    155.63356    258.63722    166.94465    -25.00000     25.00000     -8.34804    150.0    150.0      0.0      0.0    -20.0    400.0      1.0
      50 2002 12 21 12  4 10 682  5.1385    155.37405    258.80946    166.86965    -25.00000     25.00000     -8.23844    150.0    150.0      0.0      0.0    -20.0    400.0      1.0
      51 2002 12 21 12  4 15 822  5.1403    155.11988    258.96078    166.79459    -25.00000     25.00000     -8.13655    150.0    150.0      0.0      0.0    -20.0    400.0      1.0
      52 2002 12 21 12  4 20 966  5.1437    154.93260    259.10356    166.71817    -25.00000     25.00000     -8.02749    150.0    150.0      0.0      0.0    -20.0    400.0      1.0
      53 2002 12 21 12  4 26 112  5.1456    154.81003    259.25407    166.63901    -25.00000     25.00000     -7.93211    150.0    150.0      0.0      0.0    -20.0    400.0      1.0
      54 2002 12 21 12  4 31 260  5.1489    154.70601    259.41569    166.55856    -25.00000     25.00000     -7.83910    150.0    150.0      0.0      0.0    -20.0    400.0      1.0
      55 2002 12 21 12  4 36 406  5.1457    154.53080    259.57910    166.47770    -25.00000     25.00000     -7.74315    150.0    150.0      0.0      0.0    -20.0    400.0      1.0
      56 2002 12 21 12  4 41 553  5.1471    154.30350    259.73596    166.39514    -25.00000     25.00000     -7.66369    150.0    150.0      0.0      0.0    -20.0    400.0      1.0
      57 2002 12 21 12  4 46 700  5.1464    154.13707    259.88280    166.31002    -25.00000     25.00000     -7.58163    150.0    150.0      0.0      0.0    -20.0    400.0      1.0
      58 2002 12 21 12  4 51 850  5.1503    153.82440    260.02127    166.22461    -25.00000     25.00000     -7.49100    150.0    150.0      0.0      0.0    -20.0    400.0      1.0
      59 2002 12 21 12  4 57   1  5.1515    153.52063    260.15640    166.13773    -25.00000     25.00000     -7.41059    150.0    150.0      0.0      0.0    -20.0    400.0      1.0
      60 2002 12 21 12  5  2 157  5.1554    153.23791    260.29207    166.04832    -25.00000     25.00000     -7.33088    150.0    150.0      0.0      0.0    -20.0    400.0      1.0
      61 2002 12 21 12  5  7 314  5.1568    152.97668    260.42791    165.95795    -25.00000     25.00000     -7.23890    150.0    150.0      0.0      0.0    -20.0    400.0      1.0
      62 2002 12 21 12  5 12 472  5.1580    152.80305    260.55809    165.86781    -25.00000     25.00000     -7.13471    150.0    150.0      0.0      0.0    -20.0    400.0      1.0
      63 2002 12 21 12  5 17 632  5.1608    152.72646    260.68027    165.77555    -25.00000     25.00000     -7.01720    150.0    150.0      0.0      0.0    -20.0    400.0      1.0
      64 2002 12 21 12  5 22 793  5.1605    152.73086    260.79418    165.67946    -25.00000     25.00000     -6.94201    150.0    150.0      0.0      0.0    -20.0    400.0      1.0
      65 2002 12 21 12  5 27 956  5.1635    152.60372    260.90157    165.58353    -25.00000     25.00000     -6.82505    150.0    150.0      0.0      0.0    -20.0    400.0      1.0
      66 2002 12 21 12  5 33 122  5.1653    152.45189    260.99960    165.48589    -25.00000     25.00000     -6.72695    150.0    150.0      0.0      0.0    -20.0    400.0      1.0
      67 2002 12 21 12  5 38 289  5.1670    152.39342    261.09129    165.38535    -25.00000     25.00000     -6.62917    150.0    150.0      0.0      0.0    -20.0    400.0      1.0
      68 2002 12 21 12  5 43 456  5.1670    152.32678    261.18207    165.28187    -25.00000     25.00000     -6.51286    150.0    150.0      0.0      0.0    -20.0    400.0      1.0
      69 2002 12 21 12  5 48 624  5.1681    151.78904    261.27813    165.17687    -25.00000     25.00000     -6.44258    150.0    150.0      0.0      0.0    -20.0    400.0      1.0
      70 2002 12 21 12  5 53 790  5.1665    151.69688    261.37896    165.07067    -25.00000     25.00000     -6.33690    150.0    150.0      0.0      0.0    -20.0    400.0      1.0
      71 2002 12 21 12  5 58 960  5.1694    150.74005    261.48151    164.96048    -25.00000     25.00000     -6.26892    150.0    150.0      0.0      0.0    -20.0    400.0      1.0
      72 2002 12 21 12  6  4 130  5.1701    150.60685    261.58067    164.85019    -25.00000     25.00000     -6.18240    150.0    150.0      0.0      0.0    -20.0    400.0      1.0
      73 2002 12 21 12  6  9 302  5.1719    150.15417    261.67278    164.73974    -25.00000     25.00000     -6.11743    150.0    150.0      0.0      0.0    -20.0    400.0      1.0
      74 2002 12 21 12  6 14 474  5.1718    149.96861    261.75243    164.62668    -25.00000     25.00000     -6.07025    150.0    150.0      0.0      0.0    -20.0    400.0      1.0
      75 2002 12 21 12  6 19 646  5.1723    149.77402    261.82251    164.51201    -25.00000     25.00000     -5.99453    150.0    150.0      0.0      0.0    -20.0    400.0      1.0
      76 2002 12 21 12  6 24 821  5.1747    149.40191    261.88397    164.39766    -25.00000     25.00000     -5.98113    150.0    150.0      0.0      0.0    -20.0    400.0      1.0
      77 2002 12 21 12  6 29 995  5.1745    149.45535    261.94218    164.28349    -25.00000     25.00000     -5.92184    150.0    150.0      0.0      0.0    -20.0    400.0      1.0
      78 2002 12 21 12  6 35 171  5.1755    148.96362    262.00008    164.16660    -25.00000     25.00000     -5.92139    150.0    150.0      0.0      0.0    -20.0    400.0      1.0
      79 2002 12 21 12  6 40 349  5.1781    148.85327    262.06288    164.05036    -25.00000     25.00000     -5.89695    150.0    150.0      0.0      0.0    -20.0    400.0      1.0
      80 2002 12 21 12  6 45 528  5.1796    148.34352    262.11831    163.93313    -25.00000     25.00000     -5.88097    150.0    150.0      0.0      0.0    -20.0    400.0      1.0
      81 2002 12 21 12  6 50 709  5.1803    147.96442    262.16893    163.81423    -25.00000     25.00000     -5.88573    150.0    150.0      0.0      0.0    -20.0    400.0      1.0
      82 2002 12 21 12  6 55 889  5.1805    147.67998    262.21718    163.69523    -25.00000     25.00000     -5.87936    150.0    150.0      0.0      0.0    -20.0    400.0      1.0
      83 2002 12 21 12  7  1  71  5.1821    147.20832    262.26342    163.57617    -25.00000     25.00000     -5.90311    150.0    150.0      0.0      0.0    -20.0    400.0      1.0
      84 2002 12 21 12  7  6 255  5.1833    147.12226    262.30769    163.45769    -25.00000     25.00000     -5.89458    150.0    150.0      0.0      0.0    -20.0    400.0      1.0
      85 2002 12 21 12  7 11 440  5.1852    146.99218    262.35072    163.33828    -25.00000     25.00000     -5.90422    150.0    150.0      0.0      0.0    -20.0    400.0      1.0
      86 2002 12 21 12  7 16 627  5.1874    146.90840    262.39435    163.21887    -25.00000     25.00000     -5.90890    150.0    150.0      0.0      0.0    -20.0    400.0      1.0
      87 2002 12 21 12  7 21 814  5.1864    146.93030    262.44092    163.10029    -25.00000     25.00000     -5.92849    150.0    150.0      0.0      0.0    -20.0    400.0      1.0
      88 2002 12 21 12  7 27   1  5.1873    147.08534    262.48948    162.98315    -25.00000     25.00000     -5.95073    150.0    150.0      0.0      0.0    -20.0    400.0      1.0
      89 2002 12 21 12  7 32 189  5.1885    146.41874    262.53743    162.86556    -25.00000     25.00000     -5.96697    150.0    150.0      0.0      0.0    -20.0    400.0      1.0
      90 2002 12 21 12  7 37 378  5.1890    146.04835    262.58460    162.74794    -25.00000     25.00000     -6.00913    150.0    150.0      0.0      0.0    -20.0    400.0      1.0
      91 2002 12 21 12  7 42 572  5.1934    146.00299    262.62173    162.63156    -25.00000     25.00000     -6.03839    150.0    150.0      0.0      0.0    -20.0    400.0      1.0
      92 2002 12 21 12  7 47 766  5.1939    145.54507    262.64873    162.51417    -25.00000     25.00000     -6.05980    150.0    150.0      0.0      0.0    -20.0    400.0      1.0
      93 2002 12 21 12  7 52 960  5.1940    145.38411    262.66959    162.39779    -25.00000     25.00000     -6.10638    150.0    150.0      0.0      0.0    -20.0    400.0      1.0
      94 2002 12 21 12  7 58 154  5.1940    145.48076    262.69009    162.28426    -25.00000     25.00000     -6.15688    150.0    150.0      0.0      0.0    -20.0    400.0      1.0
      95 2002 12 21 12  8  3 348  5.1940    145.14682    262.71125    162.17016    -25.00000     25.00000     -6.20682    150.0    150.0      0.0      0.0    -20.0    400.0      1.0
      96 2002 12 21 12  8  8 545  5.1970    145.16952    262.73300    162.05651    -25.00000     25.00000     -6.25440    150.0    150.0      0.0      0.0    -20.0    400.0      1.0
      97 2002 12 21 12  8 13 742  5.1977    145.06979    262.75566    161.94434    -25.00000     25.00000     -6.32369    150.0    150.0      0.0      0.0    -20.0    400.0      1.0
      98 2002 12 21 12  8 18 941  5.1984    144.69121    262.77991    161.83425    -25.00000     25.00000     -6.39083    150.0    150.0      0.0      0.0    -20.0    400.0      1.0
      99 2002 12 21 12  8 24 140  5.1989    144.41822    262.80841    161.72552    -25.00000     25.00000     -6.45917    150.0    150.0      0.0      0.0    -20.0    400.0      1.0
     100 2002 12 21 12  8 29 339  5.1997    144.14826    262.83916    161.61686    -25.00000     25.00000     -6.54005    150.0    150.0      0.0      0.0    -20.0    400.0      1.0
     101 2002 12 21 12  8 34 543  5.2036    143.78119    262.86554    161.50861    -25.00000     25.00000     -6.64543    150.0    150.0      0.0      0.0    -20.0    400.0      1.0
     102 2002 12 21 12  8 39 747  5.2041    143.60117    262.88682    161.40117    -25.00000     25.00000     -6.74991    150.0    150.0      0.0      0.0    -20.0    400.0      1.0
     103 2002 12 21 12  8 44 949  5.2022    143.36300    262.90213    161.29323    -25.00000     25.00000     -6.84788    150.0    150.0      0.0      0.0    -20.0    400.0      1.0
     104 2002 12 21 12  8 50 154  5.2043    143.07383    262.91179    161.18643    -25.00000     25.00000     -6.95147    150.0    150.0      0.0      0.0    -20.0    400.0      1.0
     105 2002 12 21 12  8 55 356  5.2021    142.81543    262.91668    161.08331    -25.00000     25.00000     -7.07216    150.0    150.0      0.0      0.0    -20.0    400.0      1.0
     106 2002 12 21 12  9  0 560  5.2044    142.48950    262.91491    160.97982    -25.00000     25.00000     -7.19803    150.0    150.0      0.0      0.0    -20.0    400.0      1.0
