GITM2 log file
## Inputs from UAM.in
# Resart= F
# Eddy coef:   100.000 Eddy P0:     0.010 Eddy P1:     0.005 Eddy Scaling:     1.000
# Statistical Models Only:  F Apex:  F
# EUV Data:  F
# AMIE: none           
none                                                                                                
# Solar Heating:  T Joule Heating:  F Auroral Heating:  F
# NO Cooling:  F O Cooling:  F
# Conduction:  T Turbulent Conduction:  F Updated Turbulent Conduction:  F
# Pressure Grad:  T Ion Drag:  F Neutral Drag:  T
# Viscosity:  T Coriolis:  T Gravity:  T
# Ion Chemistry:  F Ion Advection:  F Neutral Chemistry:  F
 
#START
   iStep yyyy mm dd hh mm ss  ms      dt min(T) max(T) mean(T) min(VV) max(VV) mean(VV) F107 F107A Bx By Bz Vx HPI
       2 2002 12 21 12  0 10 227 10.2274    166.44501    167.92452    167.38622    -19.38807     22.27214    -10.95483    150.0    150.0      0.0      0.0    -20.0    400.0      1.0
       3 2002 12 21 12  0 20 117  9.8905    163.83481    194.99450    167.66067    -25.00000     25.00000    -17.67955    150.0    150.0      0.0      0.0    -20.0    400.0      1.0
       4 2002 12 21 12  0 29 731  9.6136    160.47991    209.10627    167.71819    -25.00000     25.00000    -18.82400    150.0    150.0      0.0      0.0    -20.0    400.0      1.0
       5 2002 12 21 12  0 39 375  9.6437    157.35190    217.08239    167.71681    -25.00000     25.00000    -19.22775    150.0    150.0      0.0      0.0    -20.0    400.0      1.0
       6 2002 12 21 12  0 49  56  9.6812    154.53472    223.80643    167.71649    -25.00000     25.00000    -19.05169    150.0    150.0      0.0      0.0    -20.0    400.0      1.0
       7 2002 12 21 12  0 58 786  9.7301    151.87030    229.64766    167.69789    -25.00000     25.00000    -18.75227    150.0    150.0      0.0      0.0    -20.0    400.0      1.0
       8 2002 12 21 12  1  8 577  9.7913    149.78902    233.91776    167.65336    -25.00000     25.00000    -18.41559    150.0    150.0      0.0      0.0    -20.0    400.0      1.0
       9 2002 12 21 12  1 18 406  9.8292    148.05795    236.62786    167.59264    -25.00000     25.00000    -18.08928    150.0    150.0      0.0      0.0    -20.0    400.0      1.0
      10 2002 12 21 12  1 28 286  9.8798    146.51097    239.56762    167.52688    -25.00000     25.00000    -17.81102    150.0    150.0      0.0      0.0    -20.0    400.0      1.0
      11 2002 12 21 12  1 38 238  9.9514    145.02470    241.59859    167.44974    -25.00000     25.00000    -17.59056    150.0    150.0      0.0      0.0    -20.0    400.0      1.0
      12 2002 12 21 12  1 48 233  9.9951    143.62659    243.41108    167.36037    -25.00000     25.00000    -17.44822    150.0    150.0      0.0      0.0    -20.0    400.0      1.0
      13 2002 12 21 12  1 58 252 10.0196    142.13506    244.52199    167.25291    -25.00000     25.00000    -17.27675    150.0    150.0      0.0      0.0    -20.0    400.0      1.0
      14 2002 12 21 12  2  8 315 10.0625    140.55607    245.59650    167.13430    -25.00000     25.00000    -17.17815    150.0    150.0      0.0      0.0    -20.0    400.0      1.0
      15 2002 12 21 12  2 18 406 10.0911    138.74061    246.34888    167.00760    -25.00000     25.00000    -17.08518    150.0    150.0      0.0      0.0    -20.0    400.0      1.0
      16 2002 12 21 12  2 28 517 10.1109    136.90318    246.99203    166.87493    -25.00000     25.00000    -16.92348    150.0    150.0      0.0      0.0    -20.0    400.0      1.0
      17 2002 12 21 12  2 38 648 10.1313    135.04384    247.81515    166.73840    -25.00000     25.00000    -16.77110    150.0    150.0      0.0      0.0    -20.0    400.0      1.0
      18 2002 12 21 12  2 48 811 10.1629    133.45919    248.69192    166.59742    -25.00000     25.00000    -16.57867    150.0    150.0      0.0      0.0    -20.0    400.0      1.0
      19 2002 12 21 12  2 58 990 10.1784    132.06094    249.47616    166.45208    -25.00000     25.00000    -16.33849    150.0    150.0      0.0      0.0    -20.0    400.0      1.0
      20 2002 12 21 12  3  9 173 10.1833    130.60956    250.19192    166.30113    -25.00000     25.00000    -16.12021    150.0    150.0      0.0      0.0    -20.0    400.0      1.0
      21 2002 12 21 12  3 19 368 10.1952    128.97035    250.86026    166.14523    -25.00000     25.00000    -15.88436    150.0    150.0      0.0      0.0    -20.0    400.0      1.0
      22 2002 12 21 12  3 29 593 10.2248    127.28883    251.46389    165.98275    -25.00000     25.00000    -15.65239    150.0    150.0      0.0      0.0    -20.0    400.0      1.0
      23 2002 12 21 12  3 39 831 10.2383    125.58436    251.98619    165.81451    -25.00000     25.00000    -15.44805    150.0    150.0      0.0      0.0    -20.0    400.0      1.0
      24 2002 12 21 12  3 50  95 10.2636    124.00007    252.43276    165.64011    -25.00000     25.00000    -15.24067    150.0    150.0      0.0      0.0    -20.0    400.0      1.0
      25 2002 12 21 12  4  0 401 10.3063    122.69244    252.80579    165.46266    -25.00000     25.00000    -15.04534    150.0    150.0      0.0      0.0    -20.0    400.0      1.0
      26 2002 12 21 12  4 10 737 10.3362    121.56201    253.12869    165.28510    -25.00000     25.00000    -14.92446    150.0    150.0      0.0      0.0    -20.0    400.0      1.0
      27 2002 12 21 12  4 21 101 10.3633    120.47538    253.42308    165.10732    -25.00000     25.00000    -14.81688    150.0    150.0      0.0      0.0    -20.0    400.0      1.0
      28 2002 12 21 12  4 31 469 10.3685    119.36707    253.69682    164.93037    -25.00000     25.00000    -14.71831    150.0    150.0      0.0      0.0    -20.0    400.0      1.0
      29 2002 12 21 12  4 41 845 10.3756    118.29306    253.94093    164.75382    -25.00000     25.00000    -14.65980    150.0    150.0      0.0      0.0    -20.0    400.0      1.0
      30 2002 12 21 12  4 52 244 10.3995    117.19345    254.10000    164.57692    -25.00000     25.00000    -14.57137    150.0    150.0      0.0      0.0    -20.0    400.0      1.0
      31 2002 12 21 12  5  2 675 10.4307    116.04991    254.18239    164.40025    -25.00000     25.00000    -14.50244    150.0    150.0      0.0      0.0    -20.0    400.0      1.0
      32 2002 12 21 12  5 13 122 10.4467    114.87814    254.23139    164.22511    -25.00000     25.00000    -14.46045    150.0    150.0      0.0      0.0    -20.0    400.0      1.0
      33 2002 12 21 12  5 23 591 10.4698    113.47966    254.31463    164.05072    -25.00000     25.00000    -14.38994    150.0    150.0      0.0      0.0    -20.0    400.0      1.0
      34 2002 12 21 12  5 34  83 10.4915    111.89920    254.47513    163.87607    -25.00000     25.00000    -14.38100    150.0    150.0      0.0      0.0    -20.0    400.0      1.0
      35 2002 12 21 12  5 44 582 10.4992    110.36408    254.71767    163.70102    -25.00000     25.00000    -14.31956    150.0    150.0      0.0      0.0    -20.0    400.0      1.0
      36 2002 12 21 12  5 55  83 10.5007    109.00441    255.01878    163.52624    -25.00000     25.00000    -14.22732    150.0    150.0      0.0      0.0    -20.0    400.0      1.0
      37 2002 12 21 12  6  5 585 10.5025    107.81140    255.35837    163.35100    -25.00000     25.00000    -14.11589    150.0    150.0      0.0      0.0    -20.0    400.0      1.0
      38 2002 12 21 12  6 16  84 10.4983    106.58961    255.71189    163.17492    -25.00000     25.00000    -13.97005    150.0    150.0      0.0      0.0    -20.0    400.0      1.0
      39 2002 12 21 12  6 26 575 10.4915    105.25530    256.08381    162.99707    -25.00000     25.00000    -13.82756    150.0    150.0      0.0      0.0    -20.0    400.0      1.0
      40 2002 12 21 12  6 37  59 10.4845    103.93130    256.45260    162.81739    -25.00000     25.00000    -13.68299    150.0    150.0      0.0      0.0    -20.0    400.0      1.0
      41 2002 12 21 12  6 47 537 10.4776    102.60076    256.81250    162.63652    -25.00000     25.00000    -13.53883    150.0    150.0      0.0      0.0    -20.0    400.0      1.0
      42 2002 12 21 12  6 58   8 10.4709    101.31996    257.19398    162.45374    -25.00000     25.00000    -13.37633    150.0    150.0      0.0      0.0    -20.0    400.0      1.0
      43 2002 12 21 12  7  8 472 10.4639    100.24209    257.42988    162.26846    -25.00000     25.00000    -13.22862    150.0    150.0      0.0      0.0    -20.0    400.0      1.0
      44 2002 12 21 12  7 18 931 10.4595     99.34424    257.49768    162.08346    -25.00000     25.00000    -13.07861    150.0    150.0      0.0      0.0    -20.0    400.0      1.0
      45 2002 12 21 12  7 29 389 10.4580     98.51800    257.48601    161.89918    -25.00000     25.00000    -13.00164    150.0    150.0      0.0      0.0    -20.0    400.0      1.0
      46 2002 12 21 12  7 39 847 10.4580     97.69868    257.42988    161.71583    -25.00000     25.00000    -12.90869    150.0    150.0      0.0      0.0    -20.0    400.0      1.0
      47 2002 12 21 12  7 50 306 10.4588     96.90843    257.35513    161.53465    -25.00000     25.00000    -12.86435    150.0    150.0      0.0      0.0    -20.0    400.0      1.0
      48 2002 12 21 12  8  0 766 10.4600     96.06384    257.33922    161.35563    -25.00000     25.00000    -12.85180    150.0    150.0      0.0      0.0    -20.0    400.0      1.0
      49 2002 12 21 12  8 11 226 10.4599     95.20273    257.52239    161.17878    -25.00000     25.00000    -12.83800    150.0    150.0      0.0      0.0    -20.0    400.0      1.0
      50 2002 12 21 12  8 21 682 10.4562     94.33859    257.86041    161.00093    -25.00000     25.00000    -12.88195    150.0    150.0      0.0      0.0    -20.0    400.0      1.0
      51 2002 12 21 12  8 32 132 10.4497     93.51108    258.22468    160.81985    -25.00000     25.00000    -12.89942    150.0    150.0      0.0      0.0    -20.0    400.0      1.0
      52 2002 12 21 12  8 42 575 10.4429     92.66458    258.54250    160.63425    -25.00000     25.00000    -12.94065    150.0    150.0      0.0      0.0    -20.0    400.0      1.0
      53 2002 12 21 12  8 53  12 10.4371     91.71693    258.78806    160.44424    -25.00000     25.00000    -12.99557    150.0    150.0      0.0      0.0    -20.0    400.0      1.0
      54 2002 12 21 12  9  3 445 10.4328     90.59029    258.96753    160.25060    -25.00000     25.00000    -13.04645    150.0    150.0      0.0      0.0    -20.0    400.0      1.0
      55 2002 12 21 12  9 13 874 10.4296     89.28109    259.11176    160.05641    -25.00000     25.00000    -13.10432    150.0    150.0      0.0      0.0    -20.0    400.0      1.0
      56 2002 12 21 12  9 24 301 10.4270     87.95133    259.26842    159.85969    -25.00000     25.00000    -13.20928    150.0    150.0      0.0      0.0    -20.0    400.0      1.0
      57 2002 12 21 12  9 34 726 10.4241     86.73115    259.52809    159.66178    -25.00000     25.00000    -13.19185    150.0    150.0      0.0      0.0    -20.0    400.0      1.0
      58 2002 12 21 12  9 45 145 10.4193     85.68975    259.78617    159.46165    -25.00000     25.00000    -13.19678    150.0    150.0      0.0      0.0    -20.0    400.0      1.0
      59 2002 12 21 12  9 55 559 10.4146     84.79249    259.89472    159.25882    -25.00000     25.00000    -13.22267    150.0    150.0      0.0      0.0    -20.0    400.0      1.0
      60 2002 12 21 12 10  5 972 10.4125     83.91130    259.81853    159.05515    -25.00000     25.00000    -13.18355    150.0    150.0      0.0      0.0    -20.0    400.0      1.0
      61 2002 12 21 12 10 16 386 10.4138     83.00370    259.69674    158.85473    -25.00000     25.00000    -13.21690    150.0    150.0      0.0      0.0    -20.0    400.0      1.0
      62 2002 12 21 12 10 26 802 10.4160     82.05747    259.50831    158.65668    -25.00000     25.00000    -13.24168    150.0    150.0      0.0      0.0    -20.0    400.0      1.0
      63 2002 12 21 12 10 37 221 10.4193     81.06125    259.43583    158.46167    -25.00000     25.00000    -13.32931    150.0    150.0      0.0      0.0    -20.0    400.0      1.0
      64 2002 12 21 12 10 47 642 10.4205     80.09641    259.42659    158.26918    -25.00000     25.00000    -13.33627    150.0    150.0      0.0      0.0    -20.0    400.0      1.0
      65 2002 12 21 12 10 58  62 10.4203     79.19563    259.59266    158.07624    -25.00000     25.00000    -13.43583    150.0    150.0      0.0      0.0    -20.0    400.0      1.0
      66 2002 12 21 12 11  8 479 10.4169     78.42522    259.89463    157.88274    -25.00000     25.00000    -13.46883    150.0    150.0      0.0      0.0    -20.0    400.0      1.0
      67 2002 12 21 12 11 18 890 10.4112     77.76757    260.25442    157.68796    -25.00000     25.00000    -13.50735    150.0    150.0      0.0      0.0    -20.0    400.0      1.0
      68 2002 12 21 12 11 29 295 10.4047     77.15062    260.56130    157.48941    -25.00000     25.00000    -13.54252    150.0    150.0      0.0      0.0    -20.0    400.0      1.0
      69 2002 12 21 12 11 39 694 10.3993     76.53394    260.77877    157.28872    -25.00000     25.00000    -13.59794    150.0    150.0      0.0      0.0    -20.0    400.0      1.0
      70 2002 12 21 12 11 50  90 10.3957     75.89666    260.90178    157.08551    -25.00000     25.00000    -13.60265    150.0    150.0      0.0      0.0    -20.0    400.0      1.0
      71 2002 12 21 12 12  0 483 10.3937     75.22795    261.06293    156.88094    -25.00000     25.00000    -13.59536    150.0    150.0      0.0      0.0    -20.0    400.0      1.0
      72 2002 12 21 12 12 10 874 10.3909     74.51773    261.20258    156.67604    -25.00000     25.00000    -13.58396    150.0    150.0      0.0      0.0    -20.0    400.0      1.0
      73 2002 12 21 12 12 21 263 10.3884     73.78879    261.33409    156.47007    -25.00000     25.00000    -13.52787    150.0    150.0      0.0      0.0    -20.0    400.0      1.0
      74 2002 12 21 12 12 31 649 10.3860     73.08973    261.42559    156.26257    -25.00000     25.00000    -13.38233    150.0    150.0      0.0      0.0    -20.0    400.0      1.0
      75 2002 12 21 12 12 42  33 10.3844     72.44104    261.28929    156.05291    -25.00000     25.00000    -13.20275    150.0    150.0      0.0      0.0    -20.0    400.0      1.0
      76 2002 12 21 12 12 52 420 10.3868     71.83704    261.09336    155.84222    -25.00000     25.00000    -12.97087    150.0    150.0      0.0      0.0    -20.0    400.0      1.0
      77 2002 12 21 12 13  2 810 10.3903     71.24868    260.91151    155.62960    -25.00000     25.00000    -12.78309    150.0    150.0      0.0      0.0    -20.0    400.0      1.0
      78 2002 12 21 12 13 13 203 10.3934     70.65125    260.85521    155.41538    -25.00000     25.00000    -12.58264    150.0    150.0      0.0      0.0    -20.0    400.0      1.0
      79 2002 12 21 12 13 23 598 10.3942     70.02940    260.90575    155.19758    -25.00000     25.00000    -12.37909    150.0    150.0      0.0      0.0    -20.0    400.0      1.0
      80 2002 12 21 12 13 33 991 10.3929     69.38833    261.05616    154.97626    -25.00000     25.00000    -12.23481    150.0    150.0      0.0      0.0    -20.0    400.0      1.0
      81 2002 12 21 12 13 44 380 10.3899     68.73559    261.26078    154.75172    -25.00000     25.00000    -12.03944    150.0    150.0      0.0      0.0    -20.0    400.0      1.0
      82 2002 12 21 12 13 54 766 10.3860     68.06425    261.44277    154.52162    -25.00000     25.00000    -11.87356    150.0    150.0      0.0      0.0    -20.0    400.0      1.0
      83 2002 12 21 12 14  5 149 10.3827     67.35990    261.60233    154.28775    -25.00000     25.00000    -11.66024    150.0    150.0      0.0      0.0    -20.0    400.0      1.0
      84 2002 12 21 12 14 15 529 10.3800     66.59858    261.76920    154.05252    -25.00000     25.00000    -11.51623    150.0    150.0      0.0      0.0    -20.0    400.0      1.0
      85 2002 12 21 12 14 25 906 10.3771     65.77857    262.00373    153.81667    -25.00000     25.00000    -11.38925    150.0    150.0      0.0      0.0    -20.0    400.0      1.0
      86 2002 12 21 12 14 36 279 10.3729     64.91104    262.21207    153.57665    -25.00000     25.00000    -11.27278    150.0    150.0      0.0      0.0    -20.0    400.0      1.0
      87 2002 12 21 12 14 46 658 10.3794     64.04630    262.38682    153.33516    -25.00000     25.00000    -11.11482    150.0    150.0      0.0      0.0    -20.0    400.0      1.0
      88 2002 12 21 12 14 57  40 10.3816     63.30730    262.46070    153.08988    -25.00000     25.00000    -10.98828    150.0    150.0      0.0      0.0    -20.0    400.0      1.0
      89 2002 12 21 12 15  7 443 10.4025     62.70767    262.33314    152.84170    -25.00000     25.00000    -10.86816    150.0    150.0      0.0      0.0    -20.0    400.0      1.0
      90 2002 12 21 12 15 17 883 10.4403     62.21876    262.10051    152.60870    -25.00000     25.00000    -10.78158    150.0    150.0      0.0      0.0    -20.0    400.0      1.0
      91 2002 12 21 12 15 28 357 10.4742     61.83547    262.33821    152.36371    -25.00000     25.00000    -10.69944    150.0    150.0      0.0      0.0    -20.0    400.0      1.0
      92 2002 12 21 12 15 38 838 10.4809     61.47976    262.44002    152.11864    -25.00000     25.00000    -10.65476    150.0    150.0      0.0      0.0    -20.0    400.0      1.0
      93 2002 12 21 12 15 49 355 10.5169     61.09056    262.51505    151.87176    -25.00000     25.00000    -10.62037    150.0    150.0      0.0      0.0    -20.0    400.0      1.0
      94 2002 12 21 12 15 59 930 10.5753     60.63984    262.70859    151.62378    -25.00000     25.00000    -10.61276    150.0    150.0      0.0      0.0    -20.0    400.0      1.0
      95 2002 12 21 12 16 10 602 10.6716     60.10696    262.96423    151.37153    -25.00000     25.00000    -10.59435    150.0    150.0      0.0      0.0    -20.0    400.0      1.0
      96 2002 12 21 12 16 21 375 10.7737     59.51119    263.22627    151.11594    -25.00000     25.00000    -10.58324    150.0    150.0      0.0      0.0    -20.0    400.0      1.0
      97 2002 12 21 12 16 32 156 10.7811     58.93408    263.36115    150.85454    -25.00000     25.00000    -10.63038    150.0    150.0      0.0      0.0    -20.0    400.0      1.0
      98 2002 12 21 12 16 42 815 10.6587     58.43710    263.26837    150.59310    -25.00000     25.00000    -10.65341    150.0    150.0      0.0      0.0    -20.0    400.0      1.0
      99 2002 12 21 12 16 53 326 10.5108     58.02260    263.28399    150.33410    -25.00000     25.00000    -10.82033    150.0    150.0      0.0      0.0    -20.0    400.0      1.0
     100 2002 12 21 12 17  3 889 10.5627     57.68099    263.44684    150.07366    -25.00000     25.00000    -10.99587    150.0    150.0      0.0      0.0    -20.0    400.0      1.0
     101 2002 12 21 12 17 14 837 10.9484     57.35206    263.68465    149.80149    -25.00000     25.00000    -11.20524    150.0    150.0      0.0      0.0    -20.0    400.0      1.0
     102 2002 12 21 12 17 25 951 11.1139     57.00444    263.93642    149.52074    -25.00000     25.00000    -11.39709    150.0    150.0      0.0      0.0    -20.0    400.0      1.0
     103 2002 12 21 12 17 36 975 11.0245     56.63065    264.13769    149.24005    -25.00000     25.00000    -11.34165    150.0    150.0      0.0      0.0    -20.0    400.0      1.0
     104 2002 12 21 12 17 47 969 10.9935     56.24138    264.19418    148.95482    -25.00000     25.00000    -11.43355    150.0    150.0      0.0      0.0    -20.0    400.0      1.0
     105 2002 12 21 12 17 58 302 10.3335     55.84941    263.85915    148.68684    -25.00000     25.00000    -11.56451    150.0    150.0      0.0      0.0    -20.0    400.0      1.0
     106 2002 12 21 12 18  8 642 10.3397     55.43268    263.55962    148.41953    -25.00000     25.00000    -11.69242    150.0    150.0      0.0      0.0    -20.0    400.0      1.0
